Wavelength (nm)	Power (dBm)
1.525E-6	-47.552282
1.525045E-6	-47.459355
1.52509E-6	-47.366007
1.525135E-6	-47.276942
1.52518E-6	-47.171514
1.525225E-6	-47.079656
1.52527E-6	-46.985359
1.525315E-6	-46.905828
1.52536E-6	-46.813107
1.525405E-6	-46.701955
1.52545E-6	-46.611453
1.525495E-6	-46.507225
1.52554E-6	-46.3865
1.525585E-6	-46.287474
1.52563E-6	-46.210573
1.525675E-6	-46.097716
1.52572E-6	-45.998075
1.525765E-6	-45.931193
1.52581E-6	-45.835259
1.525855E-6	-45.793842
1.5259E-6	-45.73977
1.525945E-6	-45.704092
1.52599E-6	-45.630427
1.526035E-6	-45.578339
1.52608E-6	-45.509847
1.526125E-6	-45.434821
1.52617E-6	-45.367044
1.526215E-6	-45.270973
1.52626E-6	-45.204247
1.526305E-6	-45.082182
1.52635E-6	-44.986668
1.526395E-6	-44.920093
1.52644E-6	-44.838614
1.526485E-6	-44.77295
1.52653E-6	-44.715976
1.526575E-6	-44.661009
1.52662E-6	-44.616777
1.526665E-6	-44.596705
1.52671E-6	-44.597957
1.526755E-6	-44.589202
1.5268E-6	-44.527177
1.526845E-6	-44.516106
1.52689E-6	-44.433357
1.526935E-6	-44.396151
1.52698E-6	-44.348608
1.527025E-6	-44.256214
1.52707E-6	-44.168012
1.527115E-6	-44.051656
1.52716E-6	-43.976144
1.527205E-6	-43.910463
1.52725E-6	-43.870043
1.527295E-6	-43.838397
1.52734E-6	-43.797598
1.527385E-6	-43.77061
1.52743E-6	-43.775787
1.527475E-6	-43.827899
1.52752E-6	-43.855246
1.527565E-6	-43.856302
1.52761E-6	-43.844708
1.527655E-6	-43.815335
1.5277E-6	-43.760275
1.527745E-6	-43.731466
1.52779E-6	-43.693688
1.527835E-6	-43.605135
1.52788E-6	-43.465945
1.527925E-6	-43.388501
1.52797E-6	-43.381873
1.528015E-6	-43.341377
1.52806E-6	-43.312415
1.528105E-6	-43.312415
1.52815E-6	-43.275327
1.528195E-6	-43.29847
1.52824E-6	-43.3762
1.528285E-6	-43.467875
1.52833E-6	-43.494011
1.528375E-6	-43.479472
1.52842E-6	-43.452461
1.528465E-6	-43.447655
1.52851E-6	-43.431355
1.528555E-6	-43.402739
1.5286E-6	-43.356401
1.528645E-6	-43.209357
1.52869E-6	-43.118472
1.528735E-6	-43.073293
1.52878E-6	-43.066248
1.528825E-6	-43.073293
1.52887E-6	-43.048687
1.528915E-6	-43.044308
1.52896E-6	-43.073293
1.529005E-6	-43.155137
1.52905E-6	-43.287346
1.529095E-6	-43.335756
1.52914E-6	-43.343252
1.529185E-6	-43.316141
1.52923E-6	-43.293831
1.529275E-6	-43.317073
1.52932E-6	-43.300326
1.529365E-6	-43.272558
1.52941E-6	-43.146166
1.529455E-6	-43.040807
1.5295E-6	-42.995559
1.529545E-6	-42.982594
1.52959E-6	-42.990368
1.529635E-6	-42.957637
1.52968E-6	-42.955921
1.529725E-6	-42.987775
1.52977E-6	-43.075056
1.529815E-6	-43.209357
1.52986E-6	-43.279946
1.529905E-6	-43.290124
1.52995E-6	-43.28087
1.529995E-6	-43.271635
1.53004E-6	-43.304042
1.530085E-6	-43.304972
1.53013E-6	-43.279021
1.530175E-6	-43.171332
1.53022E-6	-43.042557
1.530265E-6	-43.004224
1.53031E-6	-42.994693
1.530355E-6	-42.995559
1.5304E-6	-42.986911
1.530445E-6	-42.998157
1.53049E-6	-43.025963
1.530535E-6	-43.061851
1.53058E-6	-43.188493
1.530625E-6	-43.315209
1.53067E-6	-43.339503
1.530715E-6	-43.332013
1.53076E-6	-43.332949
1.530805E-6	-43.335756
1.53085E-6	-43.345128
1.530895E-6	-43.34419
1.53094E-6	-43.268869
1.530985E-6	-43.165927
1.53103E-6	-43.07065
1.531075E-6	-43.082998
1.53112E-6	-43.095381
1.531165E-6	-43.090954
1.53121E-6	-43.07682
1.531255E-6	-43.091839
1.5313E-6	-43.148855
1.531345E-6	-43.267947
1.53139E-6	-43.397988
1.531435E-6	-43.424661
1.53148E-6	-43.46884
1.531525E-6	-43.464016
1.53157E-6	-43.500813
1.531615E-6	-43.518352
1.53166E-6	-43.504704
1.531705E-6	-43.464981
1.53175E-6	-43.357342
1.531795E-6	-43.279946
1.53184E-6	-43.251389
1.531885E-6	-43.2615
1.53193E-6	-43.278097
1.531975E-6	-43.279946
1.53202E-6	-43.283644
1.532065E-6	-43.28642
1.53211E-6	-43.41607
1.532155E-6	-43.567448
1.5322E-6	-43.663296
1.532245E-6	-43.706924
1.53229E-6	-43.726341
1.532335E-6	-43.736596
1.53238E-6	-43.753055
1.532425E-6	-43.774751
1.53247E-6	-43.755116
1.532515E-6	-43.686577
1.53256E-6	-43.570411
1.532605E-6	-43.534002
1.53265E-6	-43.544795
1.532695E-6	-43.556599
1.53274E-6	-43.574366
1.532785E-6	-43.593198
1.53283E-6	-43.605135
1.532875E-6	-43.705904
1.53292E-6	-43.80385
1.532965E-6	-43.965308
1.53301E-6	-44.031831
1.533055E-6	-44.056074
1.5331E-6	-44.091582
1.533145E-6	-44.137504
1.53319E-6	-44.13863
1.533235E-6	-44.162346
1.53328E-6	-44.101621
1.533325E-6	-44.029633
1.53337E-6	-43.937261
1.533415E-6	-43.936186
1.53346E-6	-43.952341
1.533505E-6	-43.95882
1.53355E-6	-43.998987
1.533595E-6	-44.05718
1.53364E-6	-44.107208
1.533685E-6	-44.196453
1.53373E-6	-44.350973
1.533775E-6	-44.46117
1.53382E-6	-44.514877
1.533865E-6	-44.555599
1.53391E-6	-44.560561
1.533955E-6	-44.607984
1.534E-6	-44.62055
1.534045E-6	-44.607984
1.53409E-6	-44.544455
1.534135E-6	-44.46117
1.53418E-6	-44.424928
1.534225E-6	-44.451476
1.53427E-6	-44.453897
1.534315E-6	-44.512422
1.53436E-6	-44.517335
1.534405E-6	-44.549404
1.53445E-6	-44.63063
1.534495E-6	-44.804345
1.53454E-6	-44.92819
1.534585E-6	-45.019653
1.53463E-6	-45.061239
1.534675E-6	-45.084982
1.53472E-6	-45.090588
1.534765E-6	-45.135695
1.53481E-6	-45.152732
1.534855E-6	-45.132862
1.5349E-6	-45.034855
1.534945E-6	-44.959371
1.53499E-6	-44.945787
1.535035E-6	-44.979828
1.53508E-6	-45.015516
1.535125E-6	-45.058454
1.53517E-6	-45.080783
1.535215E-6	-45.125788
1.53526E-6	-45.260753
1.535305E-6	-45.419668
1.53535E-6	-45.523769
1.535395E-6	-45.570501
1.53544E-6	-45.605094
1.535485E-6	-45.628839
1.53553E-6	-45.630427
1.535575E-6	-45.673513
1.53562E-6	-45.663902
1.535665E-6	-45.57677
1.53571E-6	-45.486742
1.535755E-6	-45.459177
1.5358E-6	-45.459177
1.535845E-6	-45.506759
1.53589E-6	-45.516029
1.535935E-6	-45.57677
1.53598E-6	-45.572068
1.536025E-6	-45.665502
1.53607E-6	-45.81533
1.536115E-6	-45.949953
1.53616E-6	-46.025815
1.536205E-6	-46.044989
1.53625E-6	-46.057235
1.536295E-6	-46.074789
1.53634E-6	-46.108339
1.536385E-6	-46.133227
1.53643E-6	-46.066003
1.536475E-6	-45.948245
1.53652E-6	-45.870357
1.536565E-6	-45.878756
1.53661E-6	-45.892228
1.536655E-6	-45.902359
1.5367E-6	-45.915904
1.536745E-6	-45.941416
1.53679E-6	-45.991168
1.536835E-6	-46.110112
1.53688E-6	-46.274562
1.536925E-6	-46.346993
1.53697E-6	-46.352614
1.537015E-6	-46.377061
1.53706E-6	-46.377061
1.537105E-6	-46.424463
1.53715E-6	-46.437829
1.537195E-6	-46.432095
1.53724E-6	-46.294869
1.537285E-6	-46.210573
1.53733E-6	-46.140364
1.537375E-6	-46.161846
1.53742E-6	-46.158259
1.537465E-6	-46.172627
1.53751E-6	-46.183435
1.537555E-6	-46.17983
1.5376E-6	-46.265363
1.537645E-6	-46.422557
1.53769E-6	-46.53647
1.537735E-6	-46.597542
1.53778E-6	-46.585655
1.537825E-6	-46.603498
1.53787E-6	-46.613443
1.537915E-6	-46.615435
1.53796E-6	-46.615435
1.538005E-6	-46.534514
1.53805E-6	-46.380834
1.538095E-6	-46.276404
1.53814E-6	-46.280091
1.538185E-6	-46.300424
1.53823E-6	-46.278247
1.538275E-6	-46.294869
1.53832E-6	-46.289321
1.538365E-6	-46.309698
1.53841E-6	-46.434006
1.538455E-6	-46.577748
1.5385E-6	-46.663512
1.538545E-6	-46.663512
1.53859E-6	-46.679657
1.538635E-6	-46.689778
1.53868E-6	-46.683703
1.538725E-6	-46.671577
1.53877E-6	-46.647427
1.538815E-6	-46.516951
1.53886E-6	-46.358244
1.538905E-6	-46.324577
1.53895E-6	-46.313413
1.538995E-6	-46.318991
1.53904E-6	-46.287474
1.539085E-6	-46.289321
1.53913E-6	-46.294869
1.539175E-6	-46.367642
1.53922E-6	-46.511113
1.539265E-6	-46.609463
1.53931E-6	-46.663512
1.539355E-6	-46.677636
1.5394E-6	-46.673596
1.539445E-6	-46.68168
1.53949E-6	-46.68168
1.539535E-6	-46.645421
1.53958E-6	-46.575773
1.539625E-6	-46.420652
1.53967E-6	-46.305986
1.539715E-6	-46.272721
1.53976E-6	-46.258017
1.539805E-6	-46.247023
1.53985E-6	-46.245193
1.539895E-6	-46.254349
1.53994E-6	-46.280091
1.539985E-6	-46.377061
1.54003E-6	-46.50334
1.540075E-6	-46.581699
1.54012E-6	-46.601512
1.540165E-6	-46.613443
1.54021E-6	-46.615435
1.540255E-6	-46.605486
1.5403E-6	-46.597542
1.540345E-6	-46.556077
1.54039E-6	-46.434006
1.540435E-6	-46.287474
1.54048E-6	-46.188849
1.540525E-6	-46.169031
1.54057E-6	-46.133227
1.540615E-6	-46.13501
1.54066E-6	-46.136794
1.540705E-6	-46.149302
1.54075E-6	-46.201508
1.540795E-6	-46.311555
1.54084E-6	-46.434006
1.540885E-6	-46.513058
1.54093E-6	-46.528652
1.540975E-6	-46.548224
1.54102E-6	-46.518899
1.541065E-6	-46.511113
1.54111E-6	-46.480105
1.541155E-6	-46.420652
1.5412E-6	-46.294869
1.541245E-6	-46.149302
1.54129E-6	-46.08712
1.541335E-6	-46.038007
1.54138E-6	-46.043242
1.541425E-6	-46.032777
1.54147E-6	-46.043242
1.541515E-6	-46.057235
1.54156E-6	-46.133227
1.541605E-6	-46.283781
1.54165E-6	-46.38461
1.541695E-6	-46.42637
1.54174E-6	-46.439741
1.541785E-6	-46.420652
1.54183E-6	-46.416844
1.541875E-6	-46.409238
1.54192E-6	-46.377061
1.541965E-6	-46.272721
1.54201E-6	-46.120765
1.542055E-6	-45.996347
1.5421E-6	-45.96022
1.542145E-6	-45.946536
1.54219E-6	-45.948245
1.542235E-6	-45.939711
1.54228E-6	-45.943122
1.542325E-6	-45.963648
1.54237E-6	-46.111886
1.542415E-6	-46.252517
1.54246E-6	-46.341378
1.542505E-6	-46.360122
1.54255E-6	-46.341378
1.542595E-6	-46.339508
1.54264E-6	-46.360122
1.542685E-6	-46.333903
1.54273E-6	-46.293019
1.542775E-6	-46.151092
1.54282E-6	-45.989443
1.542865E-6	-45.905741
1.54291E-6	-45.898979
1.542955E-6	-45.888856
1.543E-6	-45.88212
1.543045E-6	-45.902359
1.54309E-6	-45.887171
1.543135E-6	-45.956795
1.54318E-6	-46.110112
1.543225E-6	-46.26904
1.54327E-6	-46.318991
1.543315E-6	-46.322715
1.54336E-6	-46.305986
1.543405E-6	-46.307841
1.54345E-6	-46.304131
1.543495E-6	-46.318991
1.54354E-6	-46.206945
1.543585E-6	-46.06074
1.54363E-6	-45.912514
1.543675E-6	-45.875395
1.54372E-6	-45.868679
1.543765E-6	-45.873715
1.54381E-6	-45.890541
1.543855E-6	-45.86365
1.5439E-6	-45.885487
1.543945E-6	-46.013657
1.54399E-6	-46.187044
1.544035E-6	-46.294869
1.54408E-6	-46.341378
1.544125E-6	-46.328305
1.54417E-6	-46.313413
1.544215E-6	-46.318991
1.54426E-6	-46.33577
1.544305E-6	-46.311555
1.54435E-6	-46.188849
1.544395E-6	-46.018863
1.54444E-6	-45.924392
1.544485E-6	-45.883803
1.54453E-6	-45.91082
1.544575E-6	-45.905741
1.54462E-6	-45.878756
1.544665E-6	-45.887171
1.54471E-6	-45.929492
1.544755E-6	-46.080069
1.5448E-6	-46.250684
1.544845E-6	-46.337639
1.54489E-6	-46.337639
1.544935E-6	-46.348866
1.54498E-6	-46.328305
1.545025E-6	-46.241536
1.54507E-6	-45.734887
1.545115E-6	-39.423339
1.54516E-6	-28.979095
1.545205E-6	-23.538905
1.54525E-6	-21.461193
1.545295E-6	-20.996875
1.54534E-6	-20.899629
1.545385E-6	-20.872467
1.54543E-6	-20.90337
1.545475E-6	-21.307096
1.54552E-6	-23.336693
1.545565E-6	-28.33866
1.54561E-6	-37.602002
1.545655E-6	-44.140883
1.5457E-6	-45.939711
1.545745E-6	-46.289321
1.54579E-6	-46.375175
1.545835E-6	-46.401645
1.54588E-6	-46.397854
1.545925E-6	-46.332036
1.54597E-6	-46.170829
1.546015E-6	-46.038007
1.54606E-6	-45.989443
1.546105E-6	-45.985995
1.54615E-6	-45.979106
1.546195E-6	-45.975667
1.54624E-6	-45.968795
1.546285E-6	-46.006725
1.54633E-6	-46.094181
1.546375E-6	-46.272721
1.54642E-6	-46.395959
1.546465E-6	-46.430186
1.54651E-6	-46.460838
1.546555E-6	-46.464684
1.5466E-6	-46.476245
1.546645E-6	-46.476245
1.54669E-6	-46.447401
1.546735E-6	-46.35074
1.54678E-6	-46.192462
1.546825E-6	-46.071273
1.54687E-6	-46.044989
1.546915E-6	-46.03452
1.54696E-6	-46.0206
1.547005E-6	-46.031036
1.54705E-6	-46.036263
1.547095E-6	-46.071273
1.54714E-6	-46.188849
1.547185E-6	-46.362001
1.54723E-6	-46.468535
1.547275E-6	-46.513058
1.54732E-6	-46.516951
1.547365E-6	-46.524748
1.54741E-6	-46.515004
1.547455E-6	-46.516951
1.5475E-6	-46.482037
1.547545E-6	-46.371407
1.54759E-6	-46.201508
1.547635E-6	-46.104795
1.54768E-6	-46.078309
1.547725E-6	-46.078309
1.54777E-6	-46.076548
1.547815E-6	-46.095948
1.54786E-6	-46.094181
1.547905E-6	-46.151092
1.54795E-6	-46.278247
1.547995E-6	-46.460838
1.54804E-6	-46.53647
1.548085E-6	-46.5738
1.54813E-6	-46.593576
1.548175E-6	-46.585655
1.54822E-6	-46.581699
1.548265E-6	-46.575773
1.54831E-6	-46.518899
1.548355E-6	-46.394066
1.5484E-6	-46.230582
1.548445E-6	-46.147513
1.54849E-6	-46.117211
1.548535E-6	-46.120765
1.54858E-6	-46.120765
1.548625E-6	-46.147513
1.54867E-6	-46.160052
1.548715E-6	-46.206945
1.54876E-6	-46.373291
1.548805E-6	-46.518899
1.54885E-6	-46.605486
1.548895E-6	-46.625407
1.54894E-6	-46.629403
1.548985E-6	-46.621416
1.54903E-6	-46.611453
1.549075E-6	-46.597542
1.54912E-6	-46.546263
1.549165E-6	-46.38839
1.54921E-6	-46.232406
1.549255E-6	-46.161846
1.5493E-6	-46.149302
1.549345E-6	-46.151092
1.54939E-6	-46.163641
1.549435E-6	-46.163641
1.54948E-6	-46.185239
1.549525E-6	-46.248853
1.54957E-6	-46.414941
1.549615E-6	-46.581699
1.54966E-6	-46.631402
1.549705E-6	-46.641411
1.54975E-6	-46.629403
1.549795E-6	-46.585655
1.54984E-6	-46.38839
1.549885E-6	-45.061239
1.54993E-6	-34.17255
1.549975E-6	-25.573635
1.55002E-6	-22.090115
1.550065E-6	-20.956091
1.55011E-6	-20.730405
1.550155E-6	-20.72835
1.5502E-6	-20.720141
1.550245E-6	-20.764451
1.55029E-6	-21.560824
1.550335E-6	-24.4855
1.55038E-6	-31.099145
1.550425E-6	-40.702236
1.55047E-6	-45.340226
1.550515E-6	-46.36388
1.55056E-6	-46.567884
1.550605E-6	-46.609463
1.55065E-6	-46.643415
1.550695E-6	-46.619421
1.55074E-6	-46.507225
1.550785E-6	-46.322715
1.55083E-6	-46.187044
1.550875E-6	-46.140364
1.55092E-6	-46.133227
1.550965E-6	-46.145725
1.55101E-6	-46.138579
1.551055E-6	-46.131445
1.5511E-6	-46.163641
1.551145E-6	-46.29117
1.55119E-6	-46.489771
1.551235E-6	-46.607474
1.55128E-6	-46.639407
1.551325E-6	-46.621416
1.55137E-6	-46.623411
1.551415E-6	-46.621416
1.55146E-6	-46.623411
1.551505E-6	-46.603498
1.55155E-6	-46.453154
1.551595E-6	-46.256183
1.55164E-6	-46.124322
1.551685E-6	-46.111886
1.55173E-6	-46.118988
1.551775E-6	-46.106567
1.55182E-6	-46.101254
1.551865E-6	-46.092415
1.55191E-6	-46.129663
1.551955E-6	-46.293019
1.552E-6	-46.491707
1.552045E-6	-46.597542
1.55209E-6	-46.615435
1.552135E-6	-46.605486
1.55218E-6	-46.609463
1.552225E-6	-46.605486
1.55227E-6	-46.609463
1.552315E-6	-46.561977
1.55236E-6	-46.38839
1.552405E-6	-46.181632
1.55245E-6	-46.088884
1.552495E-6	-46.067759
1.55254E-6	-46.071273
1.552585E-6	-46.078309
1.55263E-6	-46.053732
1.552675E-6	-46.057235
1.55272E-6	-46.127882
1.552765E-6	-46.293019
1.55281E-6	-46.478175
1.552855E-6	-46.569855
1.5529E-6	-46.5738
1.552945E-6	-46.577748
1.55299E-6	-46.577748
1.553035E-6	-46.587634
1.55308E-6	-46.575773
1.553125E-6	-46.50334
1.55317E-6	-46.309698
1.553215E-6	-46.131445
1.55326E-6	-46.053732
1.553305E-6	-46.039751
1.55335E-6	-46.022337
1.553395E-6	-46.0206
1.55344E-6	-46.006725
1.553485E-6	-46.024076
1.55353E-6	-46.104795
1.553575E-6	-46.287474
1.55362E-6	-46.466609
1.553665E-6	-46.542343
1.55371E-6	-46.554113
1.553755E-6	-46.561977
1.5538E-6	-46.567884
1.553845E-6	-46.569855
1.55389E-6	-46.548224
1.553935E-6	-46.453154
1.55398E-6	-46.263525
1.554025E-6	-46.085356
1.55407E-6	-46.015392
1.554115E-6	-45.985995
1.55416E-6	-45.980827
1.554205E-6	-45.967079
1.55425E-6	-45.980827
1.554295E-6	-46.004993
1.55434E-6	-46.092415
1.554385E-6	-46.276404
1.55443E-6	-46.460838
1.554475E-6	-46.516951
1.55452E-6	-46.528652
1.554565E-6	-46.548224
1.55461E-6	-46.53647
1.554655E-6	-46.532559
1.5547E-6	-46.505282
1.554745E-6	-46.418747
1.55479E-6	-46.214204
1.554835E-6	-46.03452
1.55488E-6	-45.972229
1.554925E-6	-45.944829
1.55497E-6	-45.934598
1.555015E-6	-45.920995
1.55506E-6	-45.938006
1.555105E-6	-45.967079
1.55515E-6	-46.062494
1.555195E-6	-46.265363
1.55524E-6	-46.435917
1.555285E-6	-46.505282
1.55533E-6	-46.5267
1.555375E-6	-46.528652
1.55542E-6	-46.515004
1.555465E-6	-46.516951
1.55551E-6	-46.491707
1.555555E-6	-46.392173
1.5556E-6	-46.185239
1.555645E-6	-46.008457
1.55569E-6	-45.943122
1.555735E-6	-45.936302
1.55578E-6	-45.922693
1.555825E-6	-45.927791
1.55587E-6	-45.938006
1.555915E-6	-45.958508
1.55596E-6	-46.06074
1.556005E-6	-46.26904
1.55605E-6	-46.451236
1.556095E-6	-46.511113
1.55614E-6	-46.532559
1.556185E-6	-46.530605
1.55623E-6	-46.516951
1.556275E-6	-46.509168
1.55632E-6	-46.499459
1.556365E-6	-46.394066
1.55641E-6	-46.176227
1.556455E-6	-45.999804
1.5565E-6	-45.936302
1.556545E-6	-45.926091
1.55659E-6	-45.927791
1.556635E-6	-45.931193
1.55668E-6	-45.931193
1.556725E-6	-45.955084
1.55677E-6	-46.066003
1.556815E-6	-46.287474
1.55686E-6	-46.474316
1.556905E-6	-46.546263
1.55695E-6	-46.558043
1.556995E-6	-46.552149
1.55704E-6	-46.546263
1.557085E-6	-46.554113
1.55713E-6	-46.540385
1.557175E-6	-46.414941
1.55722E-6	-46.201508
1.557265E-6	-46.038007
1.55731E-6	-45.965363
1.557355E-6	-45.965363
1.5574E-6	-45.975667
1.557445E-6	-45.984272
1.55749E-6	-45.985995
1.557535E-6	-46.011923
1.55758E-6	-46.138579
1.557625E-6	-46.362001
1.55767E-6	-46.558043
1.557715E-6	-46.613443
1.55776E-6	-46.623411
1.557805E-6	-46.615435
1.55785E-6	-46.615435
1.557895E-6	-46.619421
1.55794E-6	-46.613443
1.557985E-6	-46.495581
1.55803E-6	-46.26904
1.558075E-6	-46.099485
1.55812E-6	-46.048484
1.558165E-6	-46.051982
1.55821E-6	-46.057235
1.558255E-6	-46.066003
1.5583E-6	-46.069515
1.558345E-6	-46.094181
1.55839E-6	-46.219657
1.558435E-6	-46.462761
1.55848E-6	-46.647427
1.558525E-6	-46.716204
1.55857E-6	-46.716204
1.558615E-6	-46.714166
1.55866E-6	-46.726411
1.558705E-6	-46.74074
1.55875E-6	-46.732546
1.558795E-6	-46.619421
1.55884E-6	-46.3865
1.558885E-6	-46.221476
1.55893E-6	-46.181632
1.558975E-6	-46.188849
1.55902E-6	-46.199698
1.559065E-6	-46.210573
1.55911E-6	-46.206945
1.559155E-6	-46.243364
1.5592E-6	-46.382722
1.559245E-6	-46.627405
1.55929E-6	-46.798537
1.559335E-6	-46.863437
1.55938E-6	-46.867657
1.559425E-6	-46.88458
1.55947E-6	-46.905828
1.559515E-6	-46.922901
1.55956E-6	-46.905828
1.559605E-6	-46.78816
1.55965E-6	-46.565914
1.559695E-6	-46.411138
1.55974E-6	-46.392173
1.559785E-6	-46.390281
1.55983E-6	-46.403542
1.559875E-6	-46.409238
1.55992E-6	-46.401645
1.559965E-6	-46.449318
1.56001E-6	-46.597542
1.560055E-6	-46.836102
1.5601E-6	-47.009287
1.560145E-6	-47.070797
1.56019E-6	-47.079656
1.560235E-6	-47.099654
1.56028E-6	-47.115272
1.560325E-6	-47.139929
1.56037E-6	-47.128704
1.560415E-6	-47.004927
1.56046E-6	-46.802695
1.560505E-6	-46.647427
1.56055E-6	-46.625407
1.560595E-6	-46.613443
1.56064E-6	-46.629403
1.560685E-6	-46.637404
1.56073E-6	-46.657474
1.560775E-6	-46.693833
1.56082E-6	-46.831912
1.560865E-6	-47.066374
1.56091E-6	-47.242281
1.560955E-6	-47.31422
1.561E-6	-47.325936
1.561045E-6	-47.342391
1.56109E-6	-47.373117
1.561135E-6	-47.392133
1.56118E-6	-47.373117
1.561225E-6	-47.272304
1.56127E-6	-47.079656
1.561315E-6	-46.93575
1.56136E-6	-46.899443
1.561405E-6	-46.905828
1.56145E-6	-46.899443
1.561495E-6	-46.922901
1.56154E-6	-46.942188
1.561585E-6	-46.994045
1.56163E-6	-47.110804
1.561675E-6	-47.330631
1.56172E-6	-47.508016
1.561765E-6	-47.582046
1.56181E-6	-47.612014
1.561855E-6	-47.639669
1.5619E-6	-47.642191
1.561945E-6	-47.675121
1.56199E-6	-47.6675
1.562035E-6	-47.579558
1.56208E-6	-47.401673
1.562125E-6	-47.253804
1.56217E-6	-47.207895
1.562215E-6	-47.20105
1.56226E-6	-47.212464
1.562305E-6	-47.23998
1.56235E-6	-47.258422
1.562395E-6	-47.302536
1.56244E-6	-47.401673
1.562485E-6	-47.612014
1.56253E-6	-47.801536
1.562575E-6	-47.886124
1.56262E-6	-47.92635
1.562665E-6	-47.9588
1.56271E-6	-47.977842
1.562755E-6	-47.988761
1.5628E-6	-47.977842
1.562845E-6	-47.923656
1.56289E-6	-47.767637
1.562935E-6	-47.614521
1.56298E-6	-47.544873
1.563025E-6	-47.535014
1.56307E-6	-47.549811
1.563115E-6	-47.582046
1.56316E-6	-47.604503
1.563205E-6	-47.644716
1.56325E-6	-47.739159
1.563295E-6	-47.918275
1.56334E-6	-48.130437
1.563385E-6	-48.233301
1.56343E-6	-48.271053
1.563475E-6	-48.303256
1.56352E-6	-48.31208
1.563565E-6	-48.320922
1.56361E-6	-48.341624
1.563655E-6	-48.300318
1.5637E-6	-48.155925
1.563745E-6	-47.988761
1.56379E-6	-47.9129
1.563835E-6	-47.910215
1.56388E-6	-47.931741
1.563925E-6	-47.961515
1.56397E-6	-47.991495
1.564015E-6	-48.013429
1.56406E-6	-48.08549
1.564105E-6	-48.259402
1.56415E-6	-48.477117
1.564195E-6	-48.610661
1.56424E-6	-48.645493
1.564285E-6	-48.658229
1.56433E-6	-48.655041
1.564375E-6	-48.677403
1.56442E-6	-48.709549
1.564465E-6	-48.687022
1.56451E-6	-48.563608
1.564555E-6	-48.395315
1.5646E-6	-48.306195
1.564645E-6	-48.297383
1.56469E-6	-48.320922
1.564735E-6	-48.359447
1.56478E-6	-48.380334
1.564825E-6	-48.401322
1.56487E-6	-48.458805
1.564915E-6	-48.635966
1.56496E-6	-48.843895
1.565005E-6	-48.975663
1.56505E-6	-49.0309
1.565095E-6	-49.04482
1.56514E-6	-49.072794
1.565185E-6	-49.086848
1.56523E-6	-49.115095
1.565275E-6	-49.115095
1.56532E-6	-48.985966
1.565365E-6	-48.823973
1.56541E-6	-48.735439
1.565455E-6	-48.728952
1.5655E-6	-48.76475
1.565545E-6	-48.800846
1.56559E-6	-48.823973
1.565635E-6	-48.840568
1.56568E-6	-48.884015
1.565725E-6	-49.0309
1.56577E-6	-49.251836
1.565815E-6	-49.389247
1.56586E-6	-49.438577
1.565905E-6	-49.453869
1.56595E-6	-49.469216
1.565995E-6	-49.503944
1.56604E-6	-49.511699
1.566085E-6	-49.519468
1.56613E-6	-49.442395
1.566175E-6	-49.277501
1.56622E-6	-49.179331
1.566265E-6	-49.182927
1.56631E-6	-49.200955
1.566355E-6	-49.226321
1.5664E-6	-49.266483
1.566445E-6	-49.273825
1.56649E-6	-49.303319
1.566535E-6	-49.446217
1.56658E-6	-49.641702
1.566625E-6	-49.779843
1.56667E-6	-49.829667
1.566715E-6	-49.842212
1.56676E-6	-49.871628
1.566805E-6	-49.901244
1.56685E-6	-49.922522
1.566895E-6	-49.931063
1.56694E-6	-49.880069
1.566985E-6	-49.730584
1.56703E-6	-49.621752
1.567075E-6	-49.621752
1.56712E-6	-49.645703
1.567165E-6	-49.673812
1.56721E-6	-49.706162
1.567255E-6	-49.714287
1.5673E-6	-49.75925
1.567345E-6	-49.867413
1.56739E-6	-50.051991
1.567435E-6	-50.210894
1.56748E-6	-50.277046
1.567525E-6	-50.297461
1.56757E-6	-50.333421
1.567615E-6	-50.385789
1.56766E-6	-50.422491
1.567705E-6	-50.448898
1.56775E-6	-50.422491
1.567795E-6	-50.312836
1.56784E-6	-50.246601
1.567885E-6	-50.25166
1.56793E-6	-50.303046
1.567975E-6	-50.32452
1.56802E-6	-50.3659
1.568065E-6	-50.418663
1.56811E-6	-50.493431
1.568155E-6	-50.618307
1.5682E-6	-50.794071
1.568245E-6	-50.946359
1.56829E-6	-51.048538
1.568335E-6	-51.135093
1.56838E-6	-51.204454
1.568425E-6	-51.263888
1.56847E-6	-51.335354
1.568515E-6	-51.400815
1.56856E-6	-51.441176
1.568605E-6	-51.427278
1.56865E-6	-51.427278
1.568695E-6	-51.488028
1.56874E-6	-51.54964
1.568785E-6	-51.625378
1.56883E-6	-51.71018
1.568875E-6	-51.781591
1.56892E-6	-51.862189
1.568965E-6	-51.989395
1.56901E-6	-52.143855
1.569055E-6	-52.271651
1.5691E-6	-52.370215
1.569145E-6	-52.479516
1.56919E-6	-52.54769
1.569235E-6	-52.626483
1.56928E-6	-52.688949
1.569325E-6	-52.76052
1.56937E-6	-52.814983
1.569415E-6	-52.843309
1.56946E-6	-52.889524
1.569505E-6	-52.926854
1.56955E-6	-53.001623
1.569595E-6	-53.06361
1.56964E-6	-53.126494
1.569685E-6	-53.190303
1.56973E-6	-53.271635
1.569775E-6	-53.333884
1.56982E-6	-53.412257
1.569865E-6	-53.491099
1.56991E-6	-53.539886
1.569955E-6	-53.609121
1.57E-6	-53.67138
