Wavelength (nm)	Power (dBm)
1.525E-6	-49.419538
1.525045E-6	-49.30702
1.52509E-6	-49.200955
1.525135E-6	-49.108016
1.52518E-6	-49.020489
1.525225E-6	-48.92112
1.52527E-6	-48.830604
1.525315E-6	-48.732194
1.52536E-6	-48.639139
1.525405E-6	-48.554258
1.52545E-6	-48.483238
1.525495E-6	-48.374356
1.52554E-6	-48.309136
1.525585E-6	-48.233301
1.52563E-6	-48.147412
1.525675E-6	-48.052082
1.52572E-6	-48.005191
1.525765E-6	-47.920965
1.52581E-6	-47.840982
1.525855E-6	-47.79369
1.5259E-6	-47.703182
1.525945E-6	-47.619539
1.52599E-6	-47.552282
1.526035E-6	-47.478754
1.52608E-6	-47.432823
1.526125E-6	-47.368375
1.52617E-6	-47.318903
1.526215E-6	-47.23768
1.52626E-6	-47.16925
1.526305E-6	-47.10634
1.52635E-6	-47.050931
1.526395E-6	-46.996219
1.52644E-6	-46.92932
1.526485E-6	-46.873996
1.52653E-6	-46.811023
1.526575E-6	-46.755118
1.52662E-6	-46.722325
1.526665E-6	-46.667543
1.52671E-6	-46.623411
1.526755E-6	-46.560009
1.5268E-6	-46.518899
1.526845E-6	-46.476245
1.52689E-6	-46.42637
1.526935E-6	-46.3865
1.52698E-6	-46.332036
1.527025E-6	-46.272721
1.52707E-6	-46.248853
1.527115E-6	-46.219657
1.52716E-6	-46.145725
1.527205E-6	-46.138579
1.52725E-6	-46.076548
1.527295E-6	-46.07303
1.52734E-6	-46.048484
1.527385E-6	-46.010189
1.52743E-6	-45.956795
1.527475E-6	-45.922693
1.52752E-6	-45.9176
1.527565E-6	-45.877075
1.52761E-6	-45.855281
1.527655E-6	-45.845258
1.5277E-6	-45.805399
1.527745E-6	-45.760991
1.52779E-6	-45.764265
1.527835E-6	-45.747919
1.52788E-6	-45.741399
1.527925E-6	-45.712175
1.52797E-6	-45.673513
1.528015E-6	-45.644741
1.52806E-6	-45.632015
1.528105E-6	-45.622494
1.52815E-6	-45.611413
1.528195E-6	-45.598784
1.52824E-6	-45.562678
1.528285E-6	-45.58462
1.52833E-6	-45.561115
1.528375E-6	-45.583049
1.52842E-6	-45.556429
1.528465E-6	-45.52842
1.52851E-6	-45.509847
1.528555E-6	-45.52222
1.5286E-6	-45.537736
1.528645E-6	-45.505216
1.52869E-6	-45.497509
1.528735E-6	-45.489815
1.52878E-6	-45.463759
1.528825E-6	-45.460704
1.52887E-6	-45.480601
1.528915E-6	-45.472938
1.52896E-6	-45.483671
1.529005E-6	-45.437858
1.52905E-6	-45.437858
1.529095E-6	-45.446982
1.52914E-6	-45.483671
1.529185E-6	-45.489815
1.52923E-6	-45.427238
1.529275E-6	-45.44546
1.52932E-6	-45.472938
1.529365E-6	-45.457651
1.52941E-6	-45.456125
1.529455E-6	-45.43634
1.5295E-6	-45.43634
1.529545E-6	-45.4546
1.52959E-6	-45.4546
1.529635E-6	-45.459177
1.52968E-6	-45.425723
1.529725E-6	-45.43634
1.52977E-6	-45.443939
1.529815E-6	-45.460704
1.52986E-6	-45.44546
1.529905E-6	-45.479068
1.52995E-6	-45.453076
1.529995E-6	-45.471407
1.53004E-6	-45.471407
1.530085E-6	-45.479068
1.53013E-6	-45.488278
1.530175E-6	-45.499049
1.53022E-6	-45.50059
1.530265E-6	-45.446982
1.53031E-6	-45.456125
1.530355E-6	-45.502132
1.5304E-6	-45.52222
1.530445E-6	-45.508303
1.53049E-6	-45.502132
1.530535E-6	-45.502132
1.53058E-6	-45.514483
1.530625E-6	-45.526869
1.53067E-6	-45.529971
1.530715E-6	-45.523769
1.53076E-6	-45.520671
1.530805E-6	-45.526869
1.53085E-6	-45.556429
1.530895E-6	-45.542402
1.53094E-6	-45.54863
1.530985E-6	-45.542402
1.53103E-6	-45.520671
1.531075E-6	-45.562678
1.53112E-6	-45.559552
1.531165E-6	-45.611413
1.53121E-6	-45.595632
1.531255E-6	-45.565805
1.5313E-6	-45.606673
1.531345E-6	-45.617742
1.53139E-6	-45.617742
1.531435E-6	-45.630427
1.53148E-6	-45.617742
1.531525E-6	-45.657505
1.53157E-6	-45.655908
1.531615E-6	-45.647929
1.53166E-6	-45.683147
1.531705E-6	-45.686362
1.53175E-6	-45.668705
1.531795E-6	-45.702477
1.53184E-6	-45.696024
1.531885E-6	-45.710557
1.53193E-6	-45.694412
1.531975E-6	-45.746288
1.53202E-6	-45.73977
1.532065E-6	-45.762628
1.53211E-6	-45.744658
1.532155E-6	-45.798792
1.5322E-6	-45.795491
1.532245E-6	-45.785606
1.53229E-6	-45.807053
1.532335E-6	-45.845258
1.53238E-6	-45.831931
1.532425E-6	-45.861975
1.53247E-6	-45.856953
1.532515E-6	-45.883803
1.53256E-6	-45.892228
1.532605E-6	-45.905741
1.53265E-6	-45.931193
1.532695E-6	-45.932895
1.53274E-6	-45.944829
1.532785E-6	-45.943122
1.53283E-6	-45.977386
1.532875E-6	-45.958508
1.53292E-6	-46.008457
1.532965E-6	-46.024076
1.53301E-6	-46.018863
1.533055E-6	-46.031036
1.5331E-6	-46.055483
1.533145E-6	-46.046736
1.53319E-6	-46.118988
1.533235E-6	-46.118988
1.53328E-6	-46.13501
1.533325E-6	-46.133227
1.53337E-6	-46.169031
1.533415E-6	-46.183435
1.53346E-6	-46.190655
1.533505E-6	-46.176227
1.53355E-6	-46.226937
1.533595E-6	-46.217839
1.53364E-6	-46.26904
1.533685E-6	-46.254349
1.53373E-6	-46.29117
1.533775E-6	-46.307841
1.53382E-6	-46.33577
1.533865E-6	-46.346993
1.53391E-6	-46.377061
1.533955E-6	-46.392173
1.534E-6	-46.367642
1.534045E-6	-46.392173
1.53409E-6	-46.399749
1.534135E-6	-46.418747
1.53418E-6	-46.455074
1.534225E-6	-46.447401
1.53427E-6	-46.518899
1.534315E-6	-46.515004
1.53436E-6	-46.507225
1.534405E-6	-46.516951
1.53445E-6	-46.509168
1.534495E-6	-46.534514
1.53454E-6	-46.577748
1.534585E-6	-46.593576
1.53463E-6	-46.583677
1.534675E-6	-46.635403
1.53472E-6	-46.657474
1.534765E-6	-46.615435
1.53481E-6	-46.643415
1.534855E-6	-46.663512
1.5349E-6	-46.720284
1.534945E-6	-46.722325
1.53499E-6	-46.716204
1.535035E-6	-46.746896
1.53508E-6	-46.732546
1.535125E-6	-46.755118
1.53517E-6	-46.769543
1.535215E-6	-46.786087
1.53526E-6	-46.798537
1.535305E-6	-46.804776
1.53535E-6	-46.808939
1.535395E-6	-46.85922
1.53544E-6	-46.863437
1.535485E-6	-46.865546
1.53553E-6	-46.871882
1.535575E-6	-46.888822
1.53562E-6	-46.895191
1.535665E-6	-46.85922
1.53571E-6	-46.90157
1.535755E-6	-46.869769
1.5358E-6	-46.880343
1.535845E-6	-46.912222
1.53589E-6	-46.914356
1.535935E-6	-46.950788
1.53598E-6	-46.933606
1.536025E-6	-46.916491
1.53607E-6	-46.916491
1.536115E-6	-46.950788
1.53616E-6	-46.957249
1.536205E-6	-46.978856
1.53625E-6	-46.970201
1.536295E-6	-46.931463
1.53634E-6	-46.942188
1.536385E-6	-46.972363
1.53643E-6	-46.987529
1.536475E-6	-46.9897
1.53652E-6	-46.991872
1.536565E-6	-46.972363
1.53661E-6	-46.987529
1.536655E-6	-46.974526
1.5367E-6	-47.009287
1.536745E-6	-46.978856
1.53679E-6	-46.983191
1.536835E-6	-46.972363
1.53688E-6	-47.000571
1.536925E-6	-47.013652
1.53697E-6	-47.013652
1.537015E-6	-46.991872
1.53706E-6	-47.013652
1.537105E-6	-46.972363
1.53715E-6	-46.9897
1.537195E-6	-47.000571
1.53724E-6	-46.978856
1.537285E-6	-46.972363
1.53733E-6	-46.959405
1.537375E-6	-46.96372
1.53742E-6	-46.976691
1.537465E-6	-46.974526
1.53751E-6	-46.957249
1.537555E-6	-46.965879
1.5376E-6	-46.946486
1.537645E-6	-46.944337
1.53769E-6	-46.974526
1.537735E-6	-46.957249
1.53778E-6	-46.92718
1.537825E-6	-46.950788
1.53787E-6	-46.96372
1.537915E-6	-46.91009
1.53796E-6	-46.959405
1.538005E-6	-46.940041
1.53805E-6	-46.92504
1.538095E-6	-46.903698
1.53814E-6	-46.92504
1.538185E-6	-46.88458
1.53823E-6	-46.916491
1.538275E-6	-46.92504
1.53832E-6	-46.912222
1.538365E-6	-46.863437
1.53841E-6	-46.873996
1.538455E-6	-46.890944
1.5385E-6	-46.899443
1.538545E-6	-46.914356
1.53859E-6	-46.895191
1.538635E-6	-46.890944
1.53868E-6	-46.893067
1.538725E-6	-46.876111
1.53877E-6	-46.890944
1.538815E-6	-46.871882
1.53886E-6	-46.850799
1.538905E-6	-46.863437
1.53895E-6	-46.873996
1.538995E-6	-46.838199
1.53904E-6	-46.85922
1.539085E-6	-46.823545
1.53913E-6	-46.800616
1.539175E-6	-46.846595
1.53922E-6	-46.893067
1.539265E-6	-46.85922
1.53931E-6	-46.863437
1.539355E-6	-46.838199
1.5394E-6	-46.819367
1.539445E-6	-46.855008
1.53949E-6	-46.819367
1.539535E-6	-46.842395
1.53958E-6	-46.804776
1.539625E-6	-46.792308
1.53967E-6	-46.798537
1.539715E-6	-46.821455
1.53976E-6	-46.808939
1.539805E-6	-46.781945
1.53985E-6	-46.784016
1.539895E-6	-46.769543
1.53994E-6	-46.775739
1.539985E-6	-46.800616
1.54003E-6	-46.773673
1.540075E-6	-46.786087
1.54012E-6	-46.771607
1.540165E-6	-46.779876
1.54021E-6	-46.775739
1.540255E-6	-46.792308
1.5403E-6	-46.792308
1.540345E-6	-46.775739
1.54039E-6	-46.751005
1.540435E-6	-46.759234
1.54048E-6	-46.751005
1.540525E-6	-46.74074
1.54057E-6	-46.761294
1.540615E-6	-46.724367
1.54066E-6	-46.755118
1.540705E-6	-46.710091
1.54075E-6	-46.767479
1.540795E-6	-46.755118
1.54084E-6	-46.736641
1.540885E-6	-46.734593
1.54093E-6	-46.720284
1.540975E-6	-46.720284
1.54102E-6	-46.728455
1.541065E-6	-46.751005
1.54111E-6	-46.728455
1.541155E-6	-46.706021
1.5412E-6	-46.708056
1.541245E-6	-46.706021
1.54129E-6	-46.710091
1.541335E-6	-46.689778
1.54138E-6	-46.701955
1.541425E-6	-46.706021
1.54147E-6	-46.667543
1.541515E-6	-46.699923
1.54156E-6	-46.68168
1.541605E-6	-46.703988
1.54165E-6	-46.689778
1.541695E-6	-46.68168
1.54174E-6	-46.673596
1.541785E-6	-46.673596
1.54183E-6	-46.68168
1.541875E-6	-46.68168
1.54192E-6	-46.665527
1.541965E-6	-46.685727
1.54201E-6	-46.665527
1.542055E-6	-46.66956
1.5421E-6	-46.655462
1.542145E-6	-46.641411
1.54219E-6	-46.633402
1.542235E-6	-46.639407
1.54228E-6	-46.647427
1.542325E-6	-46.635403
1.54237E-6	-46.629403
1.542415E-6	-46.629403
1.54246E-6	-46.635403
1.542505E-6	-46.66956
1.54255E-6	-46.659486
1.542595E-6	-46.633402
1.54264E-6	-46.647427
1.542685E-6	-46.647427
1.54273E-6	-46.631402
1.542775E-6	-46.637404
1.54282E-6	-46.629403
1.542865E-6	-46.617428
1.54291E-6	-46.599527
1.542955E-6	-46.560009
1.543E-6	-46.599527
1.543045E-6	-46.597542
1.54309E-6	-46.583677
1.543135E-6	-46.613443
1.54318E-6	-46.617428
1.543225E-6	-46.631402
1.54327E-6	-46.621416
1.543315E-6	-46.655462
1.54336E-6	-46.641411
1.543405E-6	-46.617428
1.54345E-6	-46.613443
1.543495E-6	-46.613443
1.54354E-6	-46.613443
1.543585E-6	-46.637404
1.54363E-6	-46.615435
1.543675E-6	-46.601512
1.54372E-6	-46.581699
1.543765E-6	-46.597542
1.54381E-6	-46.621416
1.543855E-6	-46.615435
1.5439E-6	-46.617428
1.543945E-6	-46.589614
1.54399E-6	-46.625407
1.544035E-6	-46.655462
1.54408E-6	-46.647427
1.544125E-6	-46.645421
1.54417E-6	-46.627405
1.544215E-6	-46.635403
1.54426E-6	-46.621416
1.544305E-6	-46.617428
1.54435E-6	-46.637404
1.544395E-6	-46.629403
1.54444E-6	-46.615435
1.544485E-6	-46.607474
1.54453E-6	-46.627405
1.544575E-6	-46.633402
1.54462E-6	-46.617428
1.544665E-6	-46.597542
1.54471E-6	-46.595559
1.544755E-6	-46.605486
1.5448E-6	-46.635403
1.544845E-6	-46.667543
1.54489E-6	-46.647427
1.544935E-6	-46.645421
1.54498E-6	-46.639407
1.545025E-6	-46.625407
1.54507E-6	-46.615435
1.545115E-6	-46.018863
1.54516E-6	-41.230897
1.545205E-6	-36.784016
1.54525E-6	-34.88384
1.545295E-6	-34.433357
1.54534E-6	-34.339162
1.545385E-6	-34.288737
1.54543E-6	-34.321505
1.545475E-6	-34.66355
1.54552E-6	-36.401645
1.545565E-6	-40.183173
1.54561E-6	-45.237482
1.545655E-6	-46.513058
1.5457E-6	-46.617428
1.545745E-6	-46.647427
1.54579E-6	-46.657474
1.545835E-6	-46.651443
1.54588E-6	-46.675615
1.545925E-6	-46.679657
1.54597E-6	-46.661499
1.546015E-6	-46.657474
1.54606E-6	-46.665527
1.546105E-6	-46.665527
1.54615E-6	-46.665527
1.546195E-6	-46.635403
1.54624E-6	-46.627405
1.546285E-6	-46.641411
1.54633E-6	-46.659486
1.546375E-6	-46.685727
1.54642E-6	-46.671577
1.546465E-6	-46.673596
1.54651E-6	-46.657474
1.546555E-6	-46.649435
1.5466E-6	-46.691805
1.546645E-6	-46.706021
1.54669E-6	-46.699923
1.546735E-6	-46.693833
1.54678E-6	-46.693833
1.546825E-6	-46.663512
1.54687E-6	-46.661499
1.546915E-6	-46.665527
1.54696E-6	-46.665527
1.547005E-6	-46.677636
1.54705E-6	-46.655462
1.547095E-6	-46.675615
1.54714E-6	-46.697892
1.547185E-6	-46.710091
1.54723E-6	-46.708056
1.547275E-6	-46.716204
1.54732E-6	-46.693833
1.547365E-6	-46.710091
1.54741E-6	-46.714166
1.547455E-6	-46.695862
1.5475E-6	-46.695862
1.547545E-6	-46.693833
1.54759E-6	-46.701955
1.547635E-6	-46.697892
1.54768E-6	-46.689778
1.547725E-6	-46.693833
1.54777E-6	-46.699923
1.547815E-6	-46.68168
1.54786E-6	-46.693833
1.547905E-6	-46.695862
1.54795E-6	-46.710091
1.547995E-6	-46.697892
1.54804E-6	-46.714166
1.548085E-6	-46.699923
1.54813E-6	-46.736641
1.548175E-6	-46.7305
1.54822E-6	-46.718243
1.548265E-6	-46.706021
1.54831E-6	-46.701955
1.548355E-6	-46.710091
1.5484E-6	-46.720284
1.548445E-6	-46.712128
1.54849E-6	-46.695862
1.548535E-6	-46.687752
1.54858E-6	-46.653452
1.548625E-6	-46.687752
1.54867E-6	-46.701955
1.548715E-6	-46.699923
1.54876E-6	-46.726411
1.548805E-6	-46.703988
1.54885E-6	-46.693833
1.548895E-6	-46.724367
1.54894E-6	-46.722325
1.548985E-6	-46.7305
1.54903E-6	-46.691805
1.549075E-6	-46.691805
1.54912E-6	-46.697892
1.549165E-6	-46.706021
1.54921E-6	-46.689778
1.549255E-6	-46.675615
1.5493E-6	-46.671577
1.549345E-6	-46.667543
1.54939E-6	-46.649435
1.549435E-6	-46.675615
1.54948E-6	-46.683703
1.549525E-6	-46.665527
1.54957E-6	-46.671577
1.549615E-6	-46.685727
1.54966E-6	-46.708056
1.549705E-6	-46.714166
1.54975E-6	-46.697892
1.549795E-6	-46.68168
1.54984E-6	-46.673596
1.549885E-6	-46.577748
1.54993E-6	-44.55312
1.549975E-6	-38.741935
1.55002E-6	-35.127202
1.550065E-6	-33.988095
1.55011E-6	-33.77268
1.550155E-6	-33.76544
1.5502E-6	-33.752024
1.550245E-6	-33.758211
1.55029E-6	-34.519793
1.550335E-6	-37.079656
1.55038E-6	-41.973631
1.550425E-6	-46.050233
1.55047E-6	-46.581699
1.550515E-6	-46.633402
1.55056E-6	-46.649435
1.550605E-6	-46.641411
1.55065E-6	-46.627405
1.550695E-6	-46.639407
1.55074E-6	-46.663512
1.550785E-6	-46.651443
1.55083E-6	-46.643415
1.550875E-6	-46.611453
1.55092E-6	-46.617428
1.550965E-6	-46.603498
1.55101E-6	-46.635403
1.551055E-6	-46.623411
1.5511E-6	-46.605486
1.551145E-6	-46.611453
1.55119E-6	-46.629403
1.551235E-6	-46.615435
1.55128E-6	-46.631402
1.551325E-6	-46.635403
1.55137E-6	-46.617428
1.551415E-6	-46.609463
1.55146E-6	-46.599527
1.551505E-6	-46.607474
1.55155E-6	-46.611453
1.551595E-6	-46.589614
1.55164E-6	-46.561977
1.551685E-6	-46.556077
1.55173E-6	-46.569855
1.551775E-6	-46.589614
1.55182E-6	-46.554113
1.551865E-6	-46.567884
1.55191E-6	-46.5738
1.551955E-6	-46.563945
1.552E-6	-46.593576
1.552045E-6	-46.599527
1.55209E-6	-46.599527
1.552135E-6	-46.601512
1.55218E-6	-46.585655
1.552225E-6	-46.581699
1.55227E-6	-46.605486
1.552315E-6	-46.599527
1.55236E-6	-46.552149
1.552405E-6	-46.524748
1.55245E-6	-46.532559
1.552495E-6	-46.53647
1.55254E-6	-46.558043
1.552585E-6	-46.544302
1.55263E-6	-46.524748
1.552675E-6	-46.530605
1.55272E-6	-46.542343
1.552765E-6	-46.516951
1.55281E-6	-46.552149
1.552855E-6	-46.567884
1.5529E-6	-46.563945
1.552945E-6	-46.542343
1.55299E-6	-46.532559
1.553035E-6	-46.548224
1.55308E-6	-46.561977
1.553125E-6	-46.544302
1.55317E-6	-46.518899
1.553215E-6	-46.49752
1.55326E-6	-46.495581
1.553305E-6	-46.542343
1.55335E-6	-46.524748
1.553395E-6	-46.518899
1.55344E-6	-46.487837
1.553485E-6	-46.49752
1.55353E-6	-46.49752
1.553575E-6	-46.513058
1.55362E-6	-46.532559
1.553665E-6	-46.522798
1.55371E-6	-46.516951
1.553755E-6	-46.522798
1.5538E-6	-46.501399
1.553845E-6	-46.518899
1.55389E-6	-46.528652
1.553935E-6	-46.520848
1.55398E-6	-46.509168
1.554025E-6	-46.493644
1.55407E-6	-46.489771
1.554115E-6	-46.516951
1.55416E-6	-46.489771
1.554205E-6	-46.483969
1.55425E-6	-46.455074
1.554295E-6	-46.472388
1.55434E-6	-46.493644
1.554385E-6	-46.493644
1.55443E-6	-46.505282
1.554475E-6	-46.499459
1.55452E-6	-46.50334
1.554565E-6	-46.515004
1.55461E-6	-46.507225
1.554655E-6	-46.515004
1.5547E-6	-46.501399
1.554745E-6	-46.480105
1.55479E-6	-46.474316
1.554835E-6	-46.466609
1.55488E-6	-46.472388
1.554925E-6	-46.493644
1.55497E-6	-46.462761
1.555015E-6	-46.434006
1.55506E-6	-46.435917
1.555105E-6	-46.455074
1.55515E-6	-46.460838
1.555195E-6	-46.480105
1.55524E-6	-46.453154
1.555285E-6	-46.476245
1.55533E-6	-46.455074
1.555375E-6	-46.482037
1.55542E-6	-46.493644
1.555465E-6	-46.476245
1.55551E-6	-46.480105
1.555555E-6	-46.460838
1.5556E-6	-46.453154
1.555645E-6	-46.455074
1.55569E-6	-46.434006
1.555735E-6	-46.437829
1.55578E-6	-46.418747
1.555825E-6	-46.416844
1.55587E-6	-46.420652
1.555915E-6	-46.441655
1.55596E-6	-46.441655
1.556005E-6	-46.439741
1.55605E-6	-46.434006
1.556095E-6	-46.439741
1.55614E-6	-46.455074
1.556185E-6	-46.470461
1.55623E-6	-46.466609
1.556275E-6	-46.432095
1.55632E-6	-46.439741
1.556365E-6	-46.445485
1.55641E-6	-46.447401
1.556455E-6	-46.428277
1.5565E-6	-46.411138
1.556545E-6	-46.407338
1.55659E-6	-46.394066
1.556635E-6	-46.416844
1.55668E-6	-46.432095
1.556725E-6	-46.428277
1.55677E-6	-46.401645
1.556815E-6	-46.422557
1.55686E-6	-46.411138
1.556905E-6	-46.455074
1.55695E-6	-46.466609
1.556995E-6	-46.453154
1.55704E-6	-46.441655
1.557085E-6	-46.435917
1.55713E-6	-46.434006
1.557175E-6	-46.443569
1.55722E-6	-46.439741
1.557265E-6	-46.416844
1.55731E-6	-46.394066
1.557355E-6	-46.403542
1.5574E-6	-46.407338
1.557445E-6	-46.399749
1.55749E-6	-46.40544
1.557535E-6	-46.407338
1.55758E-6	-46.409238
1.557625E-6	-46.430186
1.55767E-6	-46.447401
1.557715E-6	-46.460838
1.55776E-6	-46.453154
1.557805E-6	-46.460838
1.55785E-6	-46.439741
1.557895E-6	-46.445485
1.55794E-6	-46.447401
1.557985E-6	-46.449318
1.55803E-6	-46.445485
1.558075E-6	-46.424463
1.55812E-6	-46.409238
1.558165E-6	-46.409238
1.55821E-6	-46.416844
1.558255E-6	-46.430186
1.5583E-6	-46.428277
1.558345E-6	-46.447401
1.55839E-6	-46.455074
1.558435E-6	-46.451236
1.55848E-6	-46.470461
1.558525E-6	-46.458916
1.55857E-6	-46.474316
1.558615E-6	-46.464684
1.55866E-6	-46.472388
1.558705E-6	-46.485902
1.55875E-6	-46.489771
1.558795E-6	-46.50334
1.55884E-6	-46.462761
1.558885E-6	-46.439741
1.55893E-6	-46.451236
1.558975E-6	-46.466609
1.55902E-6	-46.476245
1.559065E-6	-46.462761
1.55911E-6	-46.458916
1.559155E-6	-46.435917
1.5592E-6	-46.474316
1.559245E-6	-46.487837
1.55929E-6	-46.509168
1.559335E-6	-46.499459
1.55938E-6	-46.507225
1.559425E-6	-46.511113
1.55947E-6	-46.518899
1.559515E-6	-46.53647
1.55956E-6	-46.518899
1.559605E-6	-46.520848
1.55965E-6	-46.505282
1.559695E-6	-46.489771
1.55974E-6	-46.491707
1.559785E-6	-46.495581
1.55983E-6	-46.511113
1.559875E-6	-46.524748
1.55992E-6	-46.50334
1.559965E-6	-46.505282
1.56001E-6	-46.520848
1.560055E-6	-46.538427
1.5601E-6	-46.579723
1.560145E-6	-46.565914
1.56019E-6	-46.556077
1.560235E-6	-46.556077
1.56028E-6	-46.569855
1.560325E-6	-46.579723
1.56037E-6	-46.585655
1.560415E-6	-46.575773
1.56046E-6	-46.560009
1.560505E-6	-46.550186
1.56055E-6	-46.554113
1.560595E-6	-46.558043
1.56064E-6	-46.569855
1.560685E-6	-46.563945
1.56073E-6	-46.556077
1.560775E-6	-46.560009
1.56082E-6	-46.550186
1.560865E-6	-46.587634
1.56091E-6	-46.621416
1.560955E-6	-46.627405
1.561E-6	-46.597542
1.561045E-6	-46.613443
1.56109E-6	-46.625407
1.561135E-6	-46.627405
1.56118E-6	-46.617428
1.561225E-6	-46.615435
1.56127E-6	-46.603498
1.561315E-6	-46.583677
1.56136E-6	-46.599527
1.561405E-6	-46.621416
1.56145E-6	-46.609463
1.561495E-6	-46.605486
1.56154E-6	-46.611453
1.561585E-6	-46.607474
1.56163E-6	-46.637404
1.561675E-6	-46.637404
1.56172E-6	-46.641411
1.561765E-6	-46.643415
1.56181E-6	-46.649435
1.561855E-6	-46.639407
1.5619E-6	-46.655462
1.561945E-6	-46.657474
1.56199E-6	-46.651443
1.562035E-6	-46.655462
1.56208E-6	-46.643415
1.562125E-6	-46.645421
1.56217E-6	-46.655462
1.562215E-6	-46.653452
1.56226E-6	-46.641411
1.562305E-6	-46.623411
1.56235E-6	-46.641411
1.562395E-6	-46.641411
1.56244E-6	-46.649435
1.562485E-6	-46.639407
1.56253E-6	-46.663512
1.562575E-6	-46.659486
1.56262E-6	-46.663512
1.562665E-6	-46.659486
1.56271E-6	-46.679657
1.562755E-6	-46.689778
1.5628E-6	-46.663512
1.562845E-6	-46.659486
1.56289E-6	-46.645421
1.562935E-6	-46.651443
1.56298E-6	-46.643415
1.563025E-6	-46.641411
1.56307E-6	-46.649435
1.563115E-6	-46.641411
1.56316E-6	-46.641411
1.563205E-6	-46.647427
1.56325E-6	-46.641411
1.563295E-6	-46.639407
1.56334E-6	-46.665527
1.563385E-6	-46.663512
1.56343E-6	-46.68168
1.563475E-6	-46.687752
1.56352E-6	-46.683703
1.563565E-6	-46.665527
1.56361E-6	-46.687752
1.563655E-6	-46.673596
1.5637E-6	-46.671577
1.563745E-6	-46.685727
1.56379E-6	-46.665527
1.563835E-6	-46.665527
1.56388E-6	-46.647427
1.563925E-6	-46.633402
1.56397E-6	-46.663512
1.564015E-6	-46.677636
1.56406E-6	-46.679657
1.564105E-6	-46.657474
1.56415E-6	-46.671577
1.564195E-6	-46.683703
1.56424E-6	-46.693833
1.564285E-6	-46.685727
1.56433E-6	-46.677636
1.564375E-6	-46.657474
1.56442E-6	-46.66956
1.564465E-6	-46.68168
1.56451E-6	-46.687752
1.564555E-6	-46.675615
1.5646E-6	-46.671577
1.564645E-6	-46.657474
1.56469E-6	-46.675615
1.564735E-6	-46.667543
1.56478E-6	-46.677636
1.564825E-6	-46.68168
1.56487E-6	-46.671577
1.564915E-6	-46.677636
1.56496E-6	-46.685727
1.565005E-6	-46.693833
1.56505E-6	-46.716204
1.565095E-6	-46.703988
1.56514E-6	-46.710091
1.565185E-6	-46.703988
1.56523E-6	-46.701955
1.565275E-6	-46.720284
1.56532E-6	-46.714166
1.565365E-6	-46.722325
1.56541E-6	-46.710091
1.565455E-6	-46.708056
1.5655E-6	-46.703988
1.565545E-6	-46.718243
1.56559E-6	-46.710091
1.565635E-6	-46.714166
1.56568E-6	-46.703988
1.565725E-6	-46.714166
1.56577E-6	-46.726411
1.565815E-6	-46.744843
1.56586E-6	-46.751005
1.565905E-6	-46.74895
1.56595E-6	-46.744843
1.565995E-6	-46.736641
1.56604E-6	-46.74895
1.566085E-6	-46.761294
1.56613E-6	-46.763355
1.566175E-6	-46.744843
1.56622E-6	-46.736641
1.566265E-6	-46.726411
1.56631E-6	-46.73869
1.566355E-6	-46.746896
1.5664E-6	-46.751005
1.566445E-6	-46.724367
1.56649E-6	-46.73869
1.566535E-6	-46.74074
1.56658E-6	-46.746896
1.566625E-6	-46.769543
1.56667E-6	-46.792308
1.566715E-6	-46.757175
1.56676E-6	-46.765416
1.566805E-6	-46.763355
1.56685E-6	-46.779876
1.566895E-6	-46.800616
1.56694E-6	-46.773673
1.566985E-6	-46.765416
1.56703E-6	-46.763355
1.567075E-6	-46.763355
1.56712E-6	-46.792308
1.567165E-6	-46.798537
1.56721E-6	-46.802695
1.567255E-6	-46.815193
1.5673E-6	-46.829819
1.567345E-6	-46.834007
1.56739E-6	-46.857113
1.567435E-6	-46.873996
1.56748E-6	-46.90157
1.567525E-6	-46.918626
1.56757E-6	-46.933606
1.567615E-6	-46.961562
1.56766E-6	-47.000571
1.567705E-6	-47.035542
1.56775E-6	-47.057543
1.567795E-6	-47.084092
1.56784E-6	-47.139929
1.567885E-6	-47.191941
1.56793E-6	-47.253804
1.567975E-6	-47.31422
1.56802E-6	-47.349462
1.568065E-6	-47.416022
1.56811E-6	-47.483618
1.568155E-6	-47.557229
1.5682E-6	-47.639669
1.568245E-6	-47.767637
1.56829E-6	-47.827793
1.568335E-6	-47.939841
1.56838E-6	-48.043771
1.568425E-6	-48.144578
1.56847E-6	-48.282735
1.568515E-6	-48.395315
1.56856E-6	-48.523237
1.568605E-6	-48.632794
1.56865E-6	-48.777841
1.568695E-6	-48.9279
1.56874E-6	-49.079815
1.568785E-6	-49.240882
1.56883E-6	-49.37418
1.568875E-6	-49.519468
1.56892E-6	-49.698052
1.568965E-6	-49.875846
1.56901E-6	-50.044964
1.569055E-6	-50.213174
1.5691E-6	-50.367317
1.569145E-6	-50.526643
1.56919E-6	-50.709389
1.569235E-6	-50.876716
1.56928E-6	-51.075158
1.569325E-6	-51.251125
1.56937E-6	-51.414628
1.569415E-6	-51.569542
1.56946E-6	-51.724369
1.569505E-6	-51.877553
1.56955E-6	-52.057909
1.569595E-6	-52.239529
1.56964E-6	-52.366469
1.569685E-6	-52.51812
1.56973E-6	-52.710784
1.569775E-6	-52.829123
1.56982E-6	-53.005092
1.569865E-6	-53.160529
1.56991E-6	-53.29105
1.569955E-6	-53.439018
1.57E-6	-53.551677
