Wavelength (nm)	Power (dBm)
1.525E-6	-48.353498
1.525045E-6	-48.256494
1.52509E-6	-48.158766
1.525135E-6	-48.077114
1.52518E-6	-47.9588
1.525225E-6	-47.848914
1.52527E-6	-47.749493
1.525315E-6	-47.664962
1.52536E-6	-47.587026
1.525405E-6	-47.488487
1.52545E-6	-47.404061
1.525495E-6	-47.307206
1.52554E-6	-47.21475
1.525585E-6	-47.13319
1.52563E-6	-47.061956
1.525675E-6	-46.968039
1.52572E-6	-46.88458
1.525765E-6	-46.800616
1.52581E-6	-46.728455
1.525855E-6	-46.66956
1.5259E-6	-46.597542
1.525945E-6	-46.524748
1.52599E-6	-46.439741
1.526035E-6	-46.373291
1.52608E-6	-46.315272
1.526125E-6	-46.247023
1.52617E-6	-46.161846
1.526215E-6	-46.11366
1.52626E-6	-46.015392
1.526305E-6	-45.973948
1.52635E-6	-45.902359
1.526395E-6	-45.84359
1.52644E-6	-45.76918
1.526485E-6	-45.697636
1.52653E-6	-45.652715
1.526575E-6	-45.594057
1.52662E-6	-45.556429
1.526665E-6	-45.503673
1.52671E-6	-45.459177
1.526755E-6	-45.404567
1.5268E-6	-45.349147
1.526845E-6	-45.31505
1.52689E-6	-45.253467
1.526935E-6	-45.241836
1.52698E-6	-45.168408
1.527025E-6	-45.127202
1.52707E-6	-45.07519
1.527115E-6	-45.022413
1.52716E-6	-44.974363
1.527205E-6	-44.92684
1.52725E-6	-44.882503
1.527295E-6	-44.843911
1.52734E-6	-44.822764
1.527385E-6	-44.799097
1.52743E-6	-44.770344
1.527475E-6	-44.717262
1.52752E-6	-44.712118
1.527565E-6	-44.685211
1.52761E-6	-44.655931
1.527655E-6	-44.616777
1.5277E-6	-44.581712
1.527745E-6	-44.549404
1.52779E-6	-44.527177
1.527835E-6	-44.545692
1.52788E-6	-44.490382
1.527925E-6	-44.458744
1.52797E-6	-44.390179
1.528015E-6	-44.387793
1.52806E-6	-44.367563
1.528105E-6	-44.388986
1.52815E-6	-44.337983
1.528195E-6	-44.334447
1.52824E-6	-44.314463
1.528285E-6	-44.349791
1.52833E-6	-44.332091
1.528375E-6	-44.310946
1.52842E-6	-44.316809
1.528465E-6	-44.29107
1.52851E-6	-44.277094
1.528555E-6	-44.251588
1.5286E-6	-44.256214
1.528645E-6	-44.223933
1.52869E-6	-44.221637
1.528735E-6	-44.183916
1.52878E-6	-44.203307
1.528825E-6	-44.185055
1.52887E-6	-44.170281
1.528915E-6	-44.163479
1.52896E-6	-44.161214
1.529005E-6	-44.15895
1.52905E-6	-44.174821
1.529095E-6	-44.183916
1.52914E-6	-44.207882
1.529185E-6	-44.163479
1.52923E-6	-44.164612
1.529275E-6	-44.177093
1.52932E-6	-44.160082
1.529365E-6	-44.17823
1.52941E-6	-44.144265
1.529455E-6	-44.121768
1.5295E-6	-44.108326
1.529545E-6	-44.126258
1.52959E-6	-44.107208
1.529635E-6	-44.130753
1.52968E-6	-44.12289
1.529725E-6	-44.120647
1.52977E-6	-44.13863
1.529815E-6	-44.148778
1.52986E-6	-44.171415
1.529905E-6	-44.187332
1.52995E-6	-44.166878
1.529995E-6	-44.170281
1.53004E-6	-44.171415
1.530085E-6	-44.183916
1.53013E-6	-44.193031
1.530175E-6	-44.180503
1.53022E-6	-44.129629
1.530265E-6	-44.134127
1.53031E-6	-44.124013
1.530355E-6	-44.147649
1.5304E-6	-44.168012
1.530445E-6	-44.151037
1.53049E-6	-44.161214
1.530535E-6	-44.146521
1.53058E-6	-44.187332
1.530625E-6	-44.217047
1.53067E-6	-44.240044
1.530715E-6	-44.222785
1.53076E-6	-44.226231
1.530805E-6	-44.238891
1.53085E-6	-44.255057
1.530895E-6	-44.263163
1.53094E-6	-44.250432
1.530985E-6	-44.220489
1.53103E-6	-44.203307
1.531075E-6	-44.214754
1.53112E-6	-44.234283
1.531165E-6	-44.270123
1.53121E-6	-44.250432
1.531255E-6	-44.268962
1.5313E-6	-44.257372
1.531345E-6	-44.299243
1.53139E-6	-44.340342
1.531435E-6	-44.336804
1.53148E-6	-44.345064
1.531525E-6	-44.343883
1.53157E-6	-44.392567
1.531615E-6	-44.398542
1.53166E-6	-44.403327
1.531705E-6	-44.392567
1.53175E-6	-44.377071
1.531795E-6	-44.388986
1.53184E-6	-44.396151
1.531885E-6	-44.398542
1.53193E-6	-44.426131
1.531975E-6	-44.417716
1.53202E-6	-44.426131
1.532065E-6	-44.440596
1.53211E-6	-44.481842
1.532155E-6	-44.516106
1.5322E-6	-44.555599
1.532245E-6	-44.543219
1.53229E-6	-44.581712
1.532335E-6	-44.596705
1.53238E-6	-44.613006
1.532425E-6	-44.628108
1.53247E-6	-44.652126
1.532515E-6	-44.623068
1.53256E-6	-44.635678
1.532605E-6	-44.629369
1.53265E-6	-44.671183
1.532695E-6	-44.691602
1.53274E-6	-44.678829
1.532785E-6	-44.712118
1.53283E-6	-44.757337
1.532875E-6	-44.762535
1.53292E-6	-44.817493
1.532965E-6	-44.835969
1.53301E-6	-44.855851
1.533055E-6	-44.87983
1.5331E-6	-44.921441
1.533145E-6	-44.960732
1.53319E-6	-44.955291
1.533235E-6	-44.967542
1.53328E-6	-44.977095
1.533325E-6	-45.001755
1.53337E-6	-45.010006
1.533415E-6	-44.999008
1.53346E-6	-45.05011
1.533505E-6	-45.032087
1.53355E-6	-45.064026
1.533595E-6	-45.117314
1.53364E-6	-45.124374
1.533685E-6	-45.16698
1.53373E-6	-45.194182
1.533775E-6	-45.260753
1.53382E-6	-45.275361
1.533865E-6	-45.306199
1.53391E-6	-45.349147
1.533955E-6	-45.343198
1.534E-6	-45.374523
1.534045E-6	-45.386516
1.53409E-6	-45.413622
1.534135E-6	-45.413622
1.53418E-6	-45.422695
1.534225E-6	-45.433304
1.53427E-6	-45.465288
1.534315E-6	-45.486742
1.53436E-6	-45.525319
1.534405E-6	-45.536182
1.53445E-6	-45.570501
1.534495E-6	-45.601938
1.53454E-6	-45.652715
1.534585E-6	-45.700863
1.53463E-6	-45.726762
1.534675E-6	-45.738142
1.53472E-6	-45.765903
1.534765E-6	-45.812017
1.53481E-6	-45.81533
1.534855E-6	-45.823623
1.5349E-6	-45.841923
1.534945E-6	-45.828606
1.53499E-6	-45.833595
1.535035E-6	-45.872036
1.53508E-6	-45.885487
1.535125E-6	-45.932895
1.53517E-6	-45.963648
1.535215E-6	-45.985995
1.53526E-6	-46.010189
1.535305E-6	-46.048484
1.53535E-6	-46.092415
1.535395E-6	-46.131445
1.53544E-6	-46.151092
1.535485E-6	-46.158259
1.53553E-6	-46.185239
1.535575E-6	-46.199698
1.53562E-6	-46.23423
1.535665E-6	-46.245193
1.53571E-6	-46.236056
1.535755E-6	-46.23423
1.5358E-6	-46.23423
1.535845E-6	-46.274562
1.53589E-6	-46.302277
1.535935E-6	-46.320853
1.53598E-6	-46.318991
1.536025E-6	-46.33017
1.53607E-6	-46.378947
1.536115E-6	-46.443569
1.53616E-6	-46.478175
1.536205E-6	-46.470461
1.53625E-6	-46.482037
1.536295E-6	-46.524748
1.53634E-6	-46.516951
1.536385E-6	-46.520848
1.53643E-6	-46.546263
1.536475E-6	-46.522798
1.53652E-6	-46.522798
1.536565E-6	-46.524748
1.53661E-6	-46.550186
1.536655E-6	-46.579723
1.5367E-6	-46.575773
1.536745E-6	-46.581699
1.53679E-6	-46.587634
1.536835E-6	-46.607474
1.53688E-6	-46.653452
1.536925E-6	-46.687752
1.53697E-6	-46.683703
1.537015E-6	-46.697892
1.53706E-6	-46.697892
1.537105E-6	-46.706021
1.53715E-6	-46.720284
1.537195E-6	-46.742791
1.53724E-6	-46.73869
1.537285E-6	-46.691805
1.53733E-6	-46.699923
1.537375E-6	-46.710091
1.53742E-6	-46.720284
1.537465E-6	-46.728455
1.53751E-6	-46.728455
1.537555E-6	-46.710091
1.5376E-6	-46.74895
1.537645E-6	-46.775739
1.53769E-6	-46.804776
1.537735E-6	-46.804776
1.53778E-6	-46.800616
1.537825E-6	-46.825635
1.53787E-6	-46.840297
1.537915E-6	-46.821455
1.53796E-6	-46.838199
1.538005E-6	-46.821455
1.53805E-6	-46.802695
1.538095E-6	-46.775739
1.53814E-6	-46.769543
1.538185E-6	-46.78816
1.53823E-6	-46.779876
1.538275E-6	-46.773673
1.53832E-6	-46.781945
1.538365E-6	-46.777807
1.53841E-6	-46.804776
1.538455E-6	-46.857113
1.5385E-6	-46.850799
1.538545E-6	-46.840297
1.53859E-6	-46.844495
1.538635E-6	-46.850799
1.53868E-6	-46.846595
1.538725E-6	-46.865546
1.53877E-6	-46.861328
1.538815E-6	-46.811023
1.53886E-6	-46.811023
1.538905E-6	-46.786087
1.53895E-6	-46.784016
1.538995E-6	-46.784016
1.53904E-6	-46.759234
1.539085E-6	-46.757175
1.53913E-6	-46.771607
1.539175E-6	-46.775739
1.53922E-6	-46.840297
1.539265E-6	-46.842395
1.53931E-6	-46.838199
1.539355E-6	-46.836102
1.5394E-6	-46.831912
1.539445E-6	-46.842395
1.53949E-6	-46.857113
1.539535E-6	-46.825635
1.53958E-6	-46.815193
1.539625E-6	-46.777807
1.53967E-6	-46.769543
1.539715E-6	-46.769543
1.53976E-6	-46.751005
1.539805E-6	-46.734593
1.53985E-6	-46.755118
1.539895E-6	-46.732546
1.53994E-6	-46.736641
1.539985E-6	-46.763355
1.54003E-6	-46.790233
1.540075E-6	-46.784016
1.54012E-6	-46.794383
1.540165E-6	-46.800616
1.54021E-6	-46.808939
1.540255E-6	-46.794383
1.5403E-6	-46.800616
1.540345E-6	-46.763355
1.54039E-6	-46.744843
1.540435E-6	-46.742791
1.54048E-6	-46.708056
1.540525E-6	-46.697892
1.54057E-6	-46.673596
1.540615E-6	-46.66956
1.54066E-6	-46.66956
1.540705E-6	-46.712128
1.54075E-6	-46.722325
1.540795E-6	-46.708056
1.54084E-6	-46.728455
1.540885E-6	-46.7305
1.54093E-6	-46.736641
1.540975E-6	-46.763355
1.54102E-6	-46.736641
1.541065E-6	-46.722325
1.54111E-6	-46.726411
1.541155E-6	-46.716204
1.5412E-6	-46.689778
1.541245E-6	-46.659486
1.54129E-6	-46.639407
1.541335E-6	-46.637404
1.54138E-6	-46.619421
1.541425E-6	-46.619421
1.54147E-6	-46.619421
1.541515E-6	-46.631402
1.54156E-6	-46.645421
1.541605E-6	-46.643415
1.54165E-6	-46.671577
1.541695E-6	-46.677636
1.54174E-6	-46.66956
1.541785E-6	-46.679657
1.54183E-6	-46.675615
1.541875E-6	-46.665527
1.54192E-6	-46.657474
1.541965E-6	-46.637404
1.54201E-6	-46.623411
1.542055E-6	-46.589614
1.5421E-6	-46.565914
1.542145E-6	-46.560009
1.54219E-6	-46.550186
1.542235E-6	-46.579723
1.54228E-6	-46.579723
1.542325E-6	-46.556077
1.54237E-6	-46.589614
1.542415E-6	-46.597542
1.54246E-6	-46.623411
1.542505E-6	-46.629403
1.54255E-6	-46.633402
1.542595E-6	-46.613443
1.54264E-6	-46.623411
1.542685E-6	-46.625407
1.54273E-6	-46.631402
1.542775E-6	-46.595559
1.54282E-6	-46.556077
1.542865E-6	-46.548224
1.54291E-6	-46.530605
1.542955E-6	-46.522798
1.543E-6	-46.540385
1.543045E-6	-46.530605
1.54309E-6	-46.530605
1.543135E-6	-46.524748
1.54318E-6	-46.548224
1.543225E-6	-46.601512
1.54327E-6	-46.629403
1.543315E-6	-46.619421
1.54336E-6	-46.617428
1.543405E-6	-46.613443
1.54345E-6	-46.599527
1.543495E-6	-46.611453
1.54354E-6	-46.599527
1.543585E-6	-46.567884
1.54363E-6	-46.544302
1.543675E-6	-46.522798
1.54372E-6	-46.513058
1.543765E-6	-46.534514
1.54381E-6	-46.530605
1.543855E-6	-46.511113
1.5439E-6	-46.540385
1.543945E-6	-46.534514
1.54399E-6	-46.583677
1.544035E-6	-46.621416
1.54408E-6	-46.623411
1.544125E-6	-46.635403
1.54417E-6	-46.617428
1.544215E-6	-46.601512
1.54426E-6	-46.595559
1.544305E-6	-46.645421
1.54435E-6	-46.619421
1.544395E-6	-46.571827
1.54444E-6	-46.534514
1.544485E-6	-46.534514
1.54453E-6	-46.540385
1.544575E-6	-46.560009
1.54462E-6	-46.556077
1.544665E-6	-46.556077
1.54471E-6	-46.548224
1.544755E-6	-46.583677
1.5448E-6	-46.625407
1.544845E-6	-46.655462
1.54489E-6	-46.647427
1.544935E-6	-46.659486
1.54498E-6	-46.653452
1.545025E-6	-46.637404
1.54507E-6	-46.538427
1.545115E-6	-44.643262
1.54516E-6	-36.151092
1.545205E-6	-31.244179
1.54525E-6	-28.951716
1.545295E-6	-28.362425
1.54534E-6	-28.294449
1.545385E-6	-28.215987
1.54543E-6	-28.259402
1.545475E-6	-28.616973
1.54552E-6	-30.413883
1.545565E-6	-34.937656
1.54561E-6	-42.028017
1.545655E-6	-46.067759
1.5457E-6	-46.589614
1.545745E-6	-46.661499
1.54579E-6	-46.691805
1.545835E-6	-46.701955
1.54588E-6	-46.703988
1.545925E-6	-46.701955
1.54597E-6	-46.663512
1.546015E-6	-46.631402
1.54606E-6	-46.619421
1.546105E-6	-46.637404
1.54615E-6	-46.633402
1.546195E-6	-46.629403
1.54624E-6	-46.623411
1.546285E-6	-46.653452
1.54633E-6	-46.659486
1.546375E-6	-46.710091
1.54642E-6	-46.746896
1.546465E-6	-46.74074
1.54651E-6	-46.744843
1.546555E-6	-46.763355
1.5466E-6	-46.769543
1.546645E-6	-46.769543
1.54669E-6	-46.761294
1.546735E-6	-46.74074
1.54678E-6	-46.712128
1.546825E-6	-46.693833
1.54687E-6	-46.706021
1.546915E-6	-46.699923
1.54696E-6	-46.673596
1.547005E-6	-46.691805
1.54705E-6	-46.706021
1.547095E-6	-46.720284
1.54714E-6	-46.742791
1.547185E-6	-46.775739
1.54723E-6	-46.794383
1.547275E-6	-46.800616
1.54732E-6	-46.808939
1.547365E-6	-46.819367
1.54741E-6	-46.821455
1.547455E-6	-46.823545
1.5475E-6	-46.804776
1.547545E-6	-46.78816
1.54759E-6	-46.765416
1.547635E-6	-46.757175
1.54768E-6	-46.751005
1.547725E-6	-46.734593
1.54777E-6	-46.746896
1.547815E-6	-46.742791
1.54786E-6	-46.74895
1.547905E-6	-46.771607
1.54795E-6	-46.790233
1.547995E-6	-46.831912
1.54804E-6	-46.838199
1.548085E-6	-46.871882
1.54813E-6	-46.871882
1.548175E-6	-46.871882
1.54822E-6	-46.876111
1.548265E-6	-46.867657
1.54831E-6	-46.852903
1.548355E-6	-46.834007
1.5484E-6	-46.790233
1.548445E-6	-46.786087
1.54849E-6	-46.784016
1.548535E-6	-46.779876
1.54858E-6	-46.781945
1.548625E-6	-46.800616
1.54867E-6	-46.794383
1.548715E-6	-46.811023
1.54876E-6	-46.836102
1.548805E-6	-46.869769
1.54885E-6	-46.88458
1.548895E-6	-46.890944
1.54894E-6	-46.92504
1.548985E-6	-46.90157
1.54903E-6	-46.914356
1.549075E-6	-46.890944
1.54912E-6	-46.888822
1.549165E-6	-46.844495
1.54921E-6	-46.819367
1.549255E-6	-46.800616
1.5493E-6	-46.798537
1.549345E-6	-46.78816
1.54939E-6	-46.815193
1.549435E-6	-46.821455
1.54948E-6	-46.811023
1.549525E-6	-46.823545
1.54957E-6	-46.852903
1.549615E-6	-46.895191
1.54966E-6	-46.920763
1.549705E-6	-46.92504
1.54975E-6	-46.907958
1.549795E-6	-46.916491
1.54984E-6	-46.857113
1.549885E-6	-46.617428
1.54993E-6	-41.732128
1.549975E-6	-33.250471
1.55002E-6	-29.531148
1.550065E-6	-28.297383
1.55011E-6	-28.052082
1.550155E-6	-27.988761
1.5502E-6	-27.996968
1.550245E-6	-28.035475
1.55029E-6	-28.716007
1.550335E-6	-31.385851
1.55038E-6	-37.432823
1.550425E-6	-44.61175
1.55047E-6	-46.599527
1.550515E-6	-46.838199
1.55056E-6	-46.897316
1.550605E-6	-46.895191
1.55065E-6	-46.903698
1.550695E-6	-46.912222
1.55074E-6	-46.882461
1.550785E-6	-46.85922
1.55083E-6	-46.813107
1.550875E-6	-46.798537
1.55092E-6	-46.792308
1.550965E-6	-46.811023
1.55101E-6	-46.806857
1.551055E-6	-46.806857
1.5511E-6	-46.808939
1.551145E-6	-46.825635
1.55119E-6	-46.871882
1.551235E-6	-46.895191
1.55128E-6	-46.907958
1.551325E-6	-46.916491
1.55137E-6	-46.897316
1.551415E-6	-46.890944
1.55146E-6	-46.897316
1.551505E-6	-46.912222
1.55155E-6	-46.869769
1.551595E-6	-46.827727
1.55164E-6	-46.78816
1.551685E-6	-46.773673
1.55173E-6	-46.78816
1.551775E-6	-46.790233
1.55182E-6	-46.781945
1.551865E-6	-46.779876
1.55191E-6	-46.771607
1.551955E-6	-46.823545
1.552E-6	-46.867657
1.552045E-6	-46.897316
1.55209E-6	-46.897316
1.552135E-6	-46.88458
1.55218E-6	-46.880343
1.552225E-6	-46.888822
1.55227E-6	-46.895191
1.552315E-6	-46.882461
1.55236E-6	-46.842395
1.552405E-6	-46.775739
1.55245E-6	-46.769543
1.552495E-6	-46.767479
1.55254E-6	-46.775739
1.552585E-6	-46.773673
1.55263E-6	-46.755118
1.552675E-6	-46.763355
1.55272E-6	-46.781945
1.552765E-6	-46.819367
1.55281E-6	-46.863437
1.552855E-6	-46.878226
1.5529E-6	-46.873996
1.552945E-6	-46.861328
1.55299E-6	-46.873996
1.553035E-6	-46.882461
1.55308E-6	-46.878226
1.553125E-6	-46.869769
1.55317E-6	-46.821455
1.553215E-6	-46.765416
1.55326E-6	-46.773673
1.553305E-6	-46.763355
1.55335E-6	-46.767479
1.553395E-6	-46.755118
1.55344E-6	-46.736641
1.553485E-6	-46.744843
1.55353E-6	-46.763355
1.553575E-6	-46.823545
1.55362E-6	-46.846595
1.553665E-6	-46.852903
1.55371E-6	-46.85922
1.553755E-6	-46.855008
1.5538E-6	-46.857113
1.553845E-6	-46.867657
1.55389E-6	-46.878226
1.553935E-6	-46.855008
1.55398E-6	-46.79646
1.554025E-6	-46.767479
1.55407E-6	-46.746896
1.554115E-6	-46.74895
1.55416E-6	-46.744843
1.554205E-6	-46.722325
1.55425E-6	-46.724367
1.554295E-6	-46.728455
1.55434E-6	-46.763355
1.554385E-6	-46.802695
1.55443E-6	-46.838199
1.554475E-6	-46.834007
1.55452E-6	-46.85922
1.554565E-6	-46.863437
1.55461E-6	-46.863437
1.554655E-6	-46.857113
1.5547E-6	-46.852903
1.554745E-6	-46.823545
1.55479E-6	-46.78816
1.554835E-6	-46.746896
1.55488E-6	-46.724367
1.554925E-6	-46.726411
1.55497E-6	-46.712128
1.555015E-6	-46.710091
1.55506E-6	-46.703988
1.555105E-6	-46.722325
1.55515E-6	-46.746896
1.555195E-6	-46.784016
1.55524E-6	-46.817279
1.555285E-6	-46.831912
1.55533E-6	-46.834007
1.555375E-6	-46.848697
1.55542E-6	-46.852903
1.555465E-6	-46.840297
1.55551E-6	-46.831912
1.555555E-6	-46.817279
1.5556E-6	-46.771607
1.555645E-6	-46.734593
1.55569E-6	-46.7305
1.555735E-6	-46.718243
1.55578E-6	-46.703988
1.555825E-6	-46.699923
1.55587E-6	-46.714166
1.555915E-6	-46.736641
1.55596E-6	-46.753061
1.556005E-6	-46.781945
1.55605E-6	-46.815193
1.556095E-6	-46.840297
1.55614E-6	-46.848697
1.556185E-6	-46.85922
1.55623E-6	-46.850799
1.556275E-6	-46.840297
1.55632E-6	-46.842395
1.556365E-6	-46.831912
1.55641E-6	-46.802695
1.556455E-6	-46.755118
1.5565E-6	-46.720284
1.556545E-6	-46.718243
1.55659E-6	-46.718243
1.556635E-6	-46.736641
1.55668E-6	-46.732546
1.556725E-6	-46.742791
1.55677E-6	-46.759234
1.556815E-6	-46.808939
1.55686E-6	-46.838199
1.556905E-6	-46.85922
1.55695E-6	-46.876111
1.556995E-6	-46.855008
1.55704E-6	-46.873996
1.557085E-6	-46.857113
1.55713E-6	-46.863437
1.557175E-6	-46.852903
1.55722E-6	-46.811023
1.557265E-6	-46.794383
1.55731E-6	-46.753061
1.557355E-6	-46.73869
1.5574E-6	-46.753061
1.557445E-6	-46.761294
1.55749E-6	-46.761294
1.557535E-6	-46.765416
1.55758E-6	-46.78816
1.557625E-6	-46.831912
1.55767E-6	-46.882461
1.557715E-6	-46.912222
1.55776E-6	-46.922901
1.557805E-6	-46.907958
1.55785E-6	-46.92932
1.557895E-6	-46.918626
1.55794E-6	-46.92932
1.557985E-6	-46.916491
1.55803E-6	-46.867657
1.558075E-6	-46.813107
1.55812E-6	-46.808939
1.558165E-6	-46.815193
1.55821E-6	-46.806857
1.558255E-6	-46.834007
1.5583E-6	-46.831912
1.558345E-6	-46.846595
1.55839E-6	-46.855008
1.558435E-6	-46.93575
1.55848E-6	-46.985359
1.558525E-6	-46.996219
1.55857E-6	-47.004927
1.558615E-6	-46.991872
1.55866E-6	-46.996219
1.558705E-6	-47.011469
1.55875E-6	-47.015836
1.558795E-6	-47.004927
1.55884E-6	-46.961562
1.558885E-6	-46.914356
1.55893E-6	-46.907958
1.558975E-6	-46.918626
1.55902E-6	-46.918626
1.559065E-6	-46.93575
1.55911E-6	-46.940041
1.559155E-6	-46.933606
1.5592E-6	-46.961562
1.559245E-6	-47.024583
1.55929E-6	-47.088532
1.559335E-6	-47.113037
1.55938E-6	-47.124222
1.559425E-6	-47.10634
1.55947E-6	-47.121983
1.559515E-6	-47.146678
1.55956E-6	-47.155693
1.559605E-6	-47.128704
1.55965E-6	-47.07301
1.559695E-6	-47.044329
1.55974E-6	-47.033348
1.559785E-6	-47.066374
1.55983E-6	-47.070797
1.559875E-6	-47.079656
1.55992E-6	-47.061956
1.559965E-6	-47.081873
1.56001E-6	-47.126462
1.560055E-6	-47.194216
1.5601E-6	-47.246886
1.560145E-6	-47.260732
1.56019E-6	-47.267672
1.560235E-6	-47.274622
1.56028E-6	-47.281584
1.560325E-6	-47.300203
1.56037E-6	-47.300203
1.560415E-6	-47.274622
1.56046E-6	-47.23768
1.560505E-6	-47.212464
1.56055E-6	-47.207895
1.560595E-6	-47.219327
1.56064E-6	-47.217038
1.560685E-6	-47.233085
1.56073E-6	-47.235382
1.560775E-6	-47.246886
1.56082E-6	-47.297871
1.560865E-6	-47.347104
1.56091E-6	-47.408842
1.560955E-6	-47.428016
1.561E-6	-47.425614
1.561045E-6	-47.432823
1.56109E-6	-47.454519
1.561135E-6	-47.461776
1.56118E-6	-47.46662
1.561225E-6	-47.452103
1.56127E-6	-47.416022
1.561315E-6	-47.392133
1.56136E-6	-47.384992
1.561405E-6	-47.401673
1.56145E-6	-47.396901
1.561495E-6	-47.416022
1.56154E-6	-47.411234
1.561585E-6	-47.452103
1.56163E-6	-47.47147
1.561675E-6	-47.544873
1.56172E-6	-47.577071
1.561765E-6	-47.594508
1.56181E-6	-47.604503
1.561855E-6	-47.619539
1.5619E-6	-47.634627
1.561945E-6	-47.649768
1.56199E-6	-47.639669
1.562035E-6	-47.634627
1.56208E-6	-47.604503
1.562125E-6	-47.577071
1.56217E-6	-47.577071
1.562215E-6	-47.584535
1.56226E-6	-47.584535
1.562305E-6	-47.592012
1.56235E-6	-47.627077
1.562395E-6	-47.624563
1.56244E-6	-47.657359
1.562485E-6	-47.698066
1.56253E-6	-47.754669
1.562575E-6	-47.765041
1.56262E-6	-47.780644
1.562665E-6	-47.806775
1.56271E-6	-47.825161
1.562755E-6	-47.840982
1.5628E-6	-47.822529
1.562845E-6	-47.81202
1.56289E-6	-47.785858
1.562935E-6	-47.762445
1.56298E-6	-47.770236
1.563025E-6	-47.791078
1.56307E-6	-47.780644
1.563115E-6	-47.796304
1.56316E-6	-47.79369
1.563205E-6	-47.814645
1.56325E-6	-47.848914
1.563295E-6	-47.886124
1.56334E-6	-47.93444
1.563385E-6	-47.975117
1.56343E-6	-48.002448
1.563475E-6	-47.996968
1.56352E-6	-48.010681
1.563565E-6	-48.021683
1.56361E-6	-48.029953
1.563655E-6	-48.021683
1.5637E-6	-48.005191
1.563745E-6	-47.988761
1.56379E-6	-47.977842
1.563835E-6	-47.986029
1.56388E-6	-47.969671
1.563925E-6	-48.002448
1.56397E-6	-48.024438
1.564015E-6	-48.035475
1.56406E-6	-48.054857
1.564105E-6	-48.088285
1.56415E-6	-48.136088
1.564195E-6	-48.167302
1.56424E-6	-48.204482
1.564285E-6	-48.198741
1.56433E-6	-48.210231
1.564375E-6	-48.207355
1.56442E-6	-48.22175
1.564465E-6	-48.23041
1.56451E-6	-48.215987
1.564555E-6	-48.201611
1.5646E-6	-48.178708
1.564645E-6	-48.184422
1.56469E-6	-48.190144
1.564735E-6	-48.213108
1.56478E-6	-48.23041
1.564825E-6	-48.241984
1.56487E-6	-48.265224
1.564915E-6	-48.282735
1.56496E-6	-48.347557
1.565005E-6	-48.389316
1.56505E-6	-48.404328
1.565095E-6	-48.431481
1.56514E-6	-48.431481
1.565185E-6	-48.434508
1.56523E-6	-48.44664
1.565275E-6	-48.461851
1.56532E-6	-48.452718
1.565365E-6	-48.434508
1.56541E-6	-48.41336
1.565455E-6	-48.404328
1.5655E-6	-48.437538
1.565545E-6	-48.44664
1.56559E-6	-48.483238
1.565635E-6	-48.474059
1.56568E-6	-48.483238
1.565725E-6	-48.517059
1.56577E-6	-48.582368
1.565815E-6	-48.626459
1.56586E-6	-48.639139
1.565905E-6	-48.651856
1.56595E-6	-48.655041
1.565995E-6	-48.671002
1.56604E-6	-48.683813
1.566085E-6	-48.696662
1.56613E-6	-48.690233
1.566175E-6	-48.661419
1.56622E-6	-48.648673
1.566265E-6	-48.648673
1.56631E-6	-48.655041
1.566355E-6	-48.696662
1.5664E-6	-48.706324
1.566445E-6	-48.709549
1.56649E-6	-48.709549
1.566535E-6	-48.754958
1.56658E-6	-48.804142
1.566625E-6	-48.843895
1.56667E-6	-48.863908
1.566715E-6	-48.867253
1.56676E-6	-48.8706
1.566805E-6	-48.880657
1.56685E-6	-48.884015
1.566895E-6	-48.924509
1.56694E-6	-48.931295
1.566985E-6	-48.904215
1.56703E-6	-48.87395
1.567075E-6	-48.887375
1.56712E-6	-48.9279
1.567165E-6	-48.931295
1.56721E-6	-48.948306
1.567255E-6	-48.961963
1.5673E-6	-48.985966
1.567345E-6	-49.017025
1.56739E-6	-49.079815
1.567435E-6	-49.136402
1.56748E-6	-49.164974
1.567525E-6	-49.175737
1.56757E-6	-49.215432
1.567615E-6	-49.237237
1.56766E-6	-49.277501
1.567705E-6	-49.329291
1.56775E-6	-49.325572
1.567795E-6	-49.347939
1.56784E-6	-49.359166
1.567885E-6	-49.423339
1.56793E-6	-49.461536
1.567975E-6	-49.515582
1.56802E-6	-49.570309
1.568065E-6	-49.629721
1.56811E-6	-49.685915
1.568155E-6	-49.763361
1.5682E-6	-49.892761
1.568245E-6	-49.969705
1.56829E-6	-50.044087
1.568335E-6	-50.117533
1.56838E-6	-50.217282
1.568425E-6	-50.330608
1.56847E-6	-50.409109
1.568515E-6	-50.53204
1.56856E-6	-50.597824
1.568605E-6	-50.704278
1.56865E-6	-50.795636
1.568695E-6	-50.894823
1.56874E-6	-51.026479
1.568785E-6	-51.149782
1.56883E-6	-51.244757
1.568875E-6	-51.341856
1.56892E-6	-51.47459
1.568965E-6	-51.618438
1.56901E-6	-51.760695
1.569055E-6	-51.907097
1.5691E-6	-52.005216
1.569145E-6	-52.128939
1.56919E-6	-52.25556
1.569235E-6	-52.386737
1.56928E-6	-52.521999
1.569325E-6	-52.599533
1.56937E-6	-52.724587
1.569415E-6	-52.814983
1.56946E-6	-52.917491
1.569505E-6	-53.053071
1.56955E-6	-53.160529
1.569595E-6	-53.265183
1.56964E-6	-53.365818
1.569685E-6	-53.435185
1.56973E-6	-53.562513
1.569775E-6	-53.653212
1.56982E-6	-53.746875
1.569865E-6	-53.852082
1.56991E-6	-53.929741
1.569955E-6	-54.003352
1.57E-6	-54.089354
